wavelength,absorption
280,0.717109962
285,0.737254468
290,0.760005508
295,0.790992501
300,0.821979494
305,0.849995827
310,0.882224482
315,0.938891874
320,0.975672695
325,0.908501251
330,0.844899027
335,0.790112878
340,0.755515236
345,0.715390908
350,0.656039459
355,0.561773847
360,0.46556782
365,0.352986497
370,0.278381691
375,0.231968041
380,0.196490881
385,0.167763431
390,0.152086545
395,0.172566409
400,0.123040296
405,0.110759195
410,0.101915406
415,0.093895604
420,0.085536862
425,0.076854683
430,0.068172503
435,0.064659556
440,0.061591374
445,0.058356887
450,0.055108181
455,0.053911935
460,0.065935976
465,0.081288344
470,0.055716743
475,0.040927138
480,0.015282365
485,0
490,0
495,0
500,0
505,0
510,0
515,0
520,0
525,0
530,0
535,0
540,0
545,0
550,0
555,0
560,0
565,0
570,0
575,0
580,0
585,0
590,0
595,0
600,0
605,0
610,0
615,0
620,0
625,0
630,0
635,0
640,0
645,0
650,0
655,0
660,0
665,0
670,0
675,0
680,0
685,0
690,0
695,0
700,0
705,0
710,0
715,0
720,0
725,0
730,0
735,0
740,0
745,0
750,0
755,0
760,0
765,0
770,0
775,0
780,0
785,0
790,0
795,0
800,0
805,0
810,0
815,0
820,0
825,0
830,0
835,0
840,0
845,0
850,0
855,0
860,0
865,0
870,0
875,0
880,0
885,0
890,0
895,0
900,0
905,0
910,0
915,0
920,0
925,0
930,0
935,0
940,0
945,0
950,0
955,0
960,0
965,0
970,0
975,0
980,0
985,0
990,0
995,0
1000,0
1005,0
1010,0
1015,0
1020,0
1025,0
1030,0
1035,0
1040,0
1045,0
1050,0
1055,0
1060,0
1065,0
1070,0
1075,0
1080,0
1085,0
1090,0
1095,0
1100,0
1105,0
1110,0
1115,0
1120,0
1125,0
1130,0
1135,0
1140,0
1145,0
1150,0
1155,0
1160,0
1165,0
1170,0
1175,0
1180,0
1185,0
1190,0
1195,0
1200,0
1205,0
1210,0
1215,0
1220,0
1225,0
1230,0
1235,0
1240,0
1245,0
1250,0
1255,0
1260,0
1265,0
1270,0
1275,0
1280,0
1285,0
1290,0
1295,0
1300,0
1305,0
1310,0
1315,0
1320,0
1325,0
1330,0
1335,0
1340,0
1345,0
1350,0
1355,0
1360,0
1365,0
1370,0
1375,0
1380,0
1385,0
1390,0
1395,0
1400,0
1405,0
1410,0
1415,0
1420,0
1425,0
1430,0
1435,0
1440,0
1445,0
1450,0
1455,0
1460,0
1465,0
1470,0
1475,0
1480,0
1485,0
1490,0
1495,0
1500,0